MONORTM RESULTS:
----------------
NWN :       4                                                                                                                   Molecular Optical Depths -->
PROF FREQ(GHz)      BT(K)      TMR(K)  RAD(W/cm2_ster_cm-1)   TRANS     PWV     CLW  TBOUND    EMIS    REFL    ANGLE    TOTAL_OD      H2O         CO2          O3         N2O          CO         CH4          O2          N2        XSEC_OD
    1    23.664    9.67956  246.16446      4.705396307E-12  0.97164  0.1506  0.0000    2.75    0.00    0.00    0.000  2.8768E-02  8.1100E-03  6.5637E-14  2.8136E-07  3.1432E-08  2.0077E-10  0.0000E+00  2.0269E-02  3.8892E-04  0.0000E+00
    1    23.932    9.61817  246.06371      4.776928665E-12  0.97188  0.1506  0.0000    2.75    0.00    0.00    0.000  2.8518E-02  7.5826E-03  6.7132E-14  2.9550E-07  3.2188E-08  2.0540E-10  0.0000E+00  2.0537E-02  3.9777E-04  0.0000E+00
    1    31.269   11.17733  244.82574      9.405520056E-12  0.96539  0.1506  0.0000    2.75    0.00    0.00    0.000  3.5224E-02  2.8230E-03  1.1463E-13  4.1763E-06  5.7239E-08  3.5406E-10  0.0000E+00  3.1718E-02  6.7882E-04  0.0000E+00
    1    31.531   11.31533  244.82939      9.684421422E-12  0.96482  0.1506  0.0000    2.75    0.00    0.00    0.000  3.5810E-02  2.8080E-03  1.1656E-13  3.1939E-06  5.8299E-08  3.6015E-10  0.0000E+00  3.2309E-02  6.9023E-04  0.0000E+00
